# shotName 7864
# channelId 710
# withTimeColumn no
# dataPoints 8192
# dataType scaled
# dataUnits kPa
# timeStart 0.00000E+0000
# timeAverageWindow 0.00000E+0000
# timeInterval 2.00000E+0000
# timeUnits microseconds
# transducerSensitivity 1.00000E-0004
# transducerSensitivityUnits volts/kPa
# transducerName spa
# transducerSerialNumber 4266
# gain 1.00000E+0000
# qfluxgain 1.00000E+0000
0.0 0.988194285714
2.0 0.776816818182
4.0 0.58382
6.0 -0.6103475
8.0 -1.7089816
10.0 -2.72310538462
12.0 -2.75788333333
14.0 -2.79017714286
16.0 -1.97837793103
18.0 -2.84830533333
20.0 -2.87455709677
22.0 -2.899168125
24.0 -2.18246606061
26.0 -2.225985
28.0 -2.26701714286
30.0 -2.30576972222
32.0 -2.34242756757
34.0 -2.37715605263
36.0 -2.41010358974
38.0 -3.051756
40.0 -4.882811
42.0 -5.49316325
44.0 -4.8828105
46.0 -6.1035155
48.0 -6.7138655
50.0 -6.7138655
52.0 -6.7138655
54.0 -6.7138655
56.0 -4.8828105
58.0 -3.6621055
60.0 -3.05175275
62.0 -3.05175275
64.0 -2.4414
66.0 -1.83104775
68.0 -1.83104775
70.0 -1.83104775
72.0 -3.66210275
74.0 -4.272455
76.0 -4.272455
78.0 -5.49316
80.0 -5.49316
82.0 -5.49316
84.0 -4.88280725
86.0 -4.272455
88.0 -3.66210275
90.0 -2.44139775
92.0 -1.831045
94.0 -1.831045
96.0 -2.44139775
98.0 -2.44139775
100.0 -2.44139775
102.0 -2.44139775
104.0 -4.27245275
106.0 -4.882805
108.0 -4.27245225
110.0 -4.27245225
112.0 -4.27245225
114.0 -4.27245225
116.0 -3.6620995
118.0 -2.4413945
120.0 -0.6103395
122.0 0.6103655
124.0 0.6103655
126.0 1.22071775
128.0 1.22071775
130.0 1.22071775
132.0 0.6103655
134.0 1.32500000003e-05
136.0 -1.83104175
138.0 -3.05174675
140.0 -3.05174675
142.0 -3.05174675
144.0 -3.05174675
146.0 -2.441394
148.0 -1.83104125
150.0 -1.83104125
152.0 0.61036375
154.0 1.220716
156.0 1.220716
158.0 1.83106825
160.0 1.83106825
162.0 1.83106825
164.0 1.83106825
166.0 1.83106825
168.0 0.610366
170.0 -0.610339
172.0 -1.22069175
174.0 -0.610339
176.0 1.37500000001e-05
178.0 1.37500000001e-05
180.0 1.37500000001e-05
182.0 1.37500000001e-05
184.0 1.220716
186.0 2.441421
188.0 2.441421
190.0 2.441421
192.0 3.66212375
194.0 3.66212375
196.0 2.44141875
198.0 1.831066
200.0 1.10000000002e-05
202.0 -1.220694
204.0 -1.83104675
206.0 -2.441399
208.0 -3.05175175
210.0 -3.05175175
212.0 -1.83104675
214.0 -1.2206945
216.0 1.05000000002e-05
218.0 0.61036275
220.0 0.61036275
222.0 1.2207155
224.0 1.2207155
226.0 1.05e-05
228.0 -0.61034225
230.0 -1.2206945
232.0 -3.6620995
234.0 -4.27245175
236.0 -4.27245175
238.0 -4.27245175
240.0 -4.27245175
242.0 -4.27245175
244.0 -4.8828045
246.0 -4.8828045
248.0 -3.0517495
250.0 -3.0517495
252.0 -3.0517495
254.0 -3.66210225
256.0 -3.66210225
258.0 -3.05175
260.0 -3.05175
262.0 -3.66210225
264.0 -4.2724545
266.0 -5.4931595
268.0 -6.10351225
270.0 -5.4931595
272.0 -6.1035095
274.0 -6.71386175
276.0 -5.49315675
278.0 -5.49315675
280.0 -4.2724545
282.0 -3.66210225
284.0 -3.66210225
286.0 -3.05175
288.0 -2.44139725
290.0 -2.44139725
292.0 -3.05175
294.0 -3.66210225
296.0 -4.88280725
298.0 -5.4931595
300.0 -6.10351225
302.0 -6.10351225
304.0 -6.10351225
306.0 -5.49316
308.0 -5.49316
310.0 -4.88280775
312.0 -3.05175275
314.0 -3.05175275
316.0 -3.05175275
318.0 -3.05175275
320.0 -2.44140275
322.0 -3.051755
324.0 -3.051755
326.0 -3.66210725
328.0 -4.88281225
330.0 -4.88281225
332.0 -4.88281225
334.0 -4.88281225
336.0 -5.493165
338.0 -6.10351725
340.0 -6.10351725
342.0 -6.10351725
344.0 -5.493165
346.0 -5.493165
348.0 -5.493165
350.0 -6.10351775
352.0 -5.49316775
354.0 -5.49316775
356.0 -6.1035205
358.0 -6.71387275
360.0 -7.324225
362.0 -7.93457725
364.0 -7.93457725
366.0 -7.93457725
368.0 -8.54493
370.0 -8.54493
372.0 -8.54493
374.0 -7.324225
376.0 -6.10352
378.0 -5.49316775
380.0 -5.49316775
382.0 -6.71387275
384.0 -7.3242255
386.0 -7.3242255
388.0 -7.3242255
390.0 -8.54492775
392.0 -10.37598275
394.0 -10.37598275
396.0 -10.37598275
398.0 -9.76563
400.0 -10.98633275
402.0 -10.3759805
404.0 -10.3759805
406.0 -9.76562825
408.0 -9.155276
410.0 -8.54492375
412.0 -7.934571
414.0 -8.54492325
416.0 -8.54492325
418.0 -8.54492325
420.0 -9.1552755
422.0 -9.7656255
424.0 -10.37597775
426.0 -10.37597775
428.0 -10.37597775
430.0 -10.98633
432.0 -11.59668
434.0 -11.59668
436.0 -11.59668
438.0 -11.59668
440.0 -10.98632775
442.0 -10.3759755
444.0 -10.3759755
446.0 -10.3759755
448.0 -10.3759755
450.0 -11.59667775
452.0 -12.20703
454.0 -14.038085
456.0 -15.86914
458.0 -16.47949225
460.0 -16.47949225
462.0 -15.86914
464.0 -16.47949225
466.0 -17.0898445
468.0 -17.0898445
470.0 -15.86914225
472.0 -15.25879225
474.0 -15.25879225
476.0 -15.25879225
478.0 -15.869145
480.0 -15.869145
482.0 -15.869145
484.0 -15.869145
486.0 -17.08984725
488.0 -17.7001995
490.0 -18.31055175
492.0 -18.9209045
494.0 -18.31055225
496.0 -18.31055225
498.0 -17.7002
500.0 -17.08984775
502.0 -16.47949775
504.0 -15.8691455
506.0 -15.25879325
508.0 -15.25879325
510.0 -14.648441
512.0 -14.038091
514.0 -14.648441
516.0 -14.648441
518.0 -15.8691435
520.0 -16.47949575
522.0 -16.47949575
524.0 -17.089848
526.0 -17.70020025
528.0 -17.0898475
530.0 -16.4794975
532.0 -15.86914525
534.0 -14.648443
536.0 -14.038093
538.0 -14.038093
540.0 -13.42774025
542.0 -13.42774025
544.0 -12.817388
546.0 -12.20703575
548.0 -12.20703575
550.0 -13.427738
552.0 -13.427738
554.0 -13.427738
556.0 -13.427738
558.0 -13.427738
560.0 -13.427738
562.0 -14.03809025
564.0 -14.03809025
566.0 -13.42774025
568.0 -12.20703525
570.0 -12.20703525
572.0 -12.20703525
574.0 -12.20703525
576.0 -12.20703525
578.0 -12.8173875
580.0 -13.42773975
582.0 -14.03808975
584.0 -14.648442
586.0 -15.25879425
588.0 -14.6484415
590.0 -15.25879375
592.0 -16.4794965
594.0 -15.8691465
596.0 -15.25879375
598.0 -13.427739
600.0 -12.207034
602.0 -12.207034
604.0 -11.59668175
606.0 -11.59668175
608.0 -11.59668175
610.0 -11.59668175
612.0 -12.207034
614.0 -13.42773625
616.0 -13.42773625
618.0 -13.42773625
620.0 -14.038089
622.0 -14.64844125
624.0 -14.64844125
626.0 -14.64844125
628.0 -14.64844125
630.0 -13.427739
632.0 -12.207034
634.0 -12.207034
636.0 -11.59668125
638.0 -11.59668125
640.0 -11.59668125
642.0 -11.59668125
644.0 -12.2070335
646.0 -12.8173835
648.0 -14.0380885
650.0 -14.0380885
652.0 -13.42773575
654.0 -14.038088
656.0 -14.038088
658.0 -13.42773575
660.0 -12.8173835
662.0 -11.59668125
664.0 -10.986329
666.0 -10.37597675
668.0 -10.9863295
670.0 -10.9863295
672.0 -10.37597675
674.0 -10.37597675
676.0 -10.9863295
678.0 -12.20703175
680.0 -13.42773675
682.0 -14.038089
684.0 -14.038089
686.0 -14.038089
688.0 -14.64844175
690.0 -14.64844175
692.0 -14.64844175
694.0 -13.4277395
696.0 -12.2070345
698.0 -11.59668225
700.0 -11.59668225
702.0 -10.98633
704.0 -10.98633
706.0 -11.59668225
708.0 -12.2070345
710.0 -13.42773675
712.0 -14.0380895
714.0 -14.0380895
716.0 -15.2587945
718.0 -15.86914675
720.0 -15.86914675
722.0 -15.86914675
724.0 -15.86914675
726.0 -15.25879675
728.0 -14.6484445
730.0 -14.6484445
732.0 -15.8691495
734.0 -15.8691495
736.0 -15.8691495
738.0 -16.47950175
740.0 -17.089854
742.0 -18.31055625
744.0 -18.9209085
746.0 -19.53126075
748.0 -19.53126075
750.0 -19.53126075
752.0 -19.53126075
754.0 -19.53126075
756.0 -20.141613
758.0 -19.531263
760.0 -18.92091075
762.0 -18.3105585
764.0 -18.3105585
766.0 -17.70020625
768.0 -17.70020625
770.0 -17.70020625
772.0 -17.70020625
774.0 -18.9209085
776.0 -20.1416135
778.0 -20.75196575
780.0 -20.75196575
782.0 -21.362318
784.0 -21.97267025
786.0 -21.362318
788.0 -21.362318
790.0 -20.751968
792.0 -20.751968
794.0 -20.14161575
796.0 -19.5312635
798.0 -19.5312635
800.0 -19.5312635
802.0 -19.5312635
804.0 -19.5312635
806.0 -20.1416135
808.0 -20.75196575
810.0 -20.75196575
812.0 -19.53126075
814.0 -19.53126075
816.0 -19.53126075
818.0 -19.53126075
820.0 -18.9209085
822.0 -18.3105585
824.0 -17.70020625
826.0 -17.70020625
828.0 -17.0898535
830.0 -17.0898535
832.0 -17.70020625
834.0 -18.31055625
836.0 -18.31055625
838.0 -18.92090625
840.0 -18.3105535
842.0 -18.92090575
844.0 -19.531258
846.0 -19.531258
848.0 -19.531258
850.0 -19.531258
852.0 -18.92090575
854.0 -17.7002035
856.0 -16.4794985
858.0 -15.86914625
860.0 -15.86914625
862.0 -14.64844125
864.0 -14.038089
866.0 -15.25879125
868.0 -15.25879125
870.0 -15.86914125
872.0 -15.2587885
874.0 -15.86914075
876.0 -15.86914075
878.0 -15.2587885
880.0 -14.64843575
882.0 -14.0380835
884.0 -13.42773125
886.0 -12.207029
888.0 -10.986324
890.0 -10.37597175
892.0 -10.9863245
894.0 -10.37597225
896.0 -9.1552695
898.0 -9.1552695
900.0 -9.1552695
902.0 -9.1552695
904.0 -9.1552695
906.0 -9.1552695
908.0 -9.76562225
910.0 -9.15527
912.0 -8.54491725
914.0 -7.324215
916.0 -6.71386275
918.0 -5.4931605
920.0 -5.4931605
922.0 -4.88280825
924.0 -4.272456
926.0 -4.272456
928.0 -4.272456
930.0 -4.272456
932.0 -4.88280825
934.0 -6.1035105
936.0 -6.1035105
938.0 -5.49315775
940.0 -5.49315775
942.0 -6.1035105
944.0 -6.1035105
946.0 -4.88280825
948.0 -3.66210325
950.0 -2.441401
952.0 -2.441401
954.0 -1.83104875
956.0 -1.83104875
958.0 -1.83104875
960.0 -2.4414015
962.0 -2.4414015
964.0 -3.66210375
966.0 -4.882806
968.0 -6.103511
970.0 -6.71386325
972.0 -6.71386325
974.0 -6.71386325
976.0 -7.934566
978.0 -7.934566
980.0 -8.54491825
982.0 -8.54491825
984.0 -7.9345655
986.0 -7.9345655
988.0 -7.9345655
990.0 -7.9345655
992.0 -7.3242155
994.0 -7.93456775
996.0 -8.54492
998.0 -9.76562225
1000.0 -10.375975
1002.0 -10.98632725
1004.0 -11.5966795
1006.0 -11.5966795
1008.0 -11.5966795
1010.0 -11.5966795
1012.0 -10.3759745
1014.0 -9.15527225
1016.0 -9.765625
1018.0 -10.37597775
1020.0 -10.37597775
1022.0 -9.765625
1024.0 -9.765625
1026.0 -10.98632725
1028.0 -12.81738225
1030.0 -14.0380845
1032.0 -15.2587895
1034.0 -15.86914175
1036.0 -15.86914175
1038.0 -16.479494
1040.0 -17.08984625
1042.0 -17.7001985
1044.0 -17.0898485
1046.0 -16.4794985
1048.0 -15.86914625
1050.0 -15.86914625
1052.0 -15.86914625
1054.0 -16.4794985
1056.0 -16.4794985
1058.0 -17.0898485
1060.0 -17.7001985
1062.0 -18.920901
1064.0 -20.141606
1066.0 -20.141606
1068.0 -20.141606
1070.0 -21.36230825
1072.0 -23.19336325
1074.0 -23.19336325
1076.0 -23.19336325
1078.0 -22.58301325
1080.0 -23.1933655
1082.0 -23.1933655
1084.0 -23.1933655
1086.0 -23.1933655
1088.0 -23.80371775
1090.0 -25.02442025
1092.0 -26.85547525
1094.0 -29.2968725
1096.0 -29.90722475
1098.0 -30.517577
1100.0 -31.12792925
1102.0 -32.34863425
1104.0 -32.9589865
1106.0 -32.9589865
1108.0 -32.9589865
1110.0 -32.3486365
1112.0 -32.3486365
1114.0 -32.3486365
1116.0 -32.95898875
1118.0 -32.95898875
1120.0 -32.95898875
1122.0 -34.17969125
1124.0 -34.79004125
1126.0 -36.62108625
1128.0 -37.2314385
1130.0 -38.452141
1132.0 -39.06249325
1134.0 -39.06249325
1136.0 -40.2831955
1138.0 -39.6728455
1140.0 -39.6728455
1142.0 -39.062493
1144.0 -39.062493
1146.0 -39.672843
1148.0 -40.28319525
1150.0 -39.67284525
1152.0 -39.67284525
1154.0 -40.28319525
1156.0 -42.11424025
1158.0 -43.94528525
1160.0 -43.94528525
1162.0 -45.16598775
1164.0 -45.77633775
1166.0 -46.99704
1168.0 -46.99704
1170.0 -46.99704
1172.0 -47.6073925
1174.0 -46.3866975
1176.0 -46.9970475
1178.0 -47.6073975
1180.0 -48.2177475
1182.0 -48.8280975
1184.0 -48.8280975
1186.0 -49.43845
1188.0 -50.659145
1190.0 -52.49019
1192.0 -53.10054
1194.0 -53.71089
1196.0 -54.32124
1198.0 -54.93159
1200.0 -54.93159
1202.0 -54.3212375
1204.0 -54.3212375
1206.0 -53.1005425
1208.0 -53.7108925
1210.0 -52.49019
1212.0 -52.49019
1214.0 -52.49019
1216.0 -51.87984
1218.0 -52.49019
1220.0 -53.710885
1222.0 -54.93158
1224.0 -55.54193
1226.0 -55.54193
1228.0 -55.54193
1230.0 -56.15228
1232.0 -56.15228
1234.0 -56.15228
1236.0 -53.71088275
1238.0 -52.49018775
1240.0 -52.49018775
1242.0 -51.87983525
1244.0 -51.26948525
1246.0 -51.26948525
1248.0 -51.26948525
1250.0 -50.65913275
1252.0 -51.26947525
1254.0 -51.87982775
1256.0 -51.87982775
1258.0 -51.26947775
1260.0 -51.26947775
1262.0 -50.65912775
1264.0 -50.65912775
1266.0 -50.04877525
1268.0 -48.21773025
1270.0 -46.38668525
1272.0 -45.165983
1274.0 -44.555633
1276.0 -43.945283
1278.0 -43.334933
1280.0 -42.72458075
1282.0 -42.72458075
1284.0 -43.33493325
1286.0 -43.94528575
1288.0 -43.33493575
1290.0 -43.33493575
1292.0 -43.33493575
1294.0 -42.7245835
1296.0 -42.7245835
1298.0 -42.7245835
1300.0 -40.8935385
1302.0 -39.0624935
1304.0 -38.4521435
1306.0 -37.8417935
1308.0 -37.23144125
1310.0 -36.62109125
1312.0 -36.62109125
1314.0 -36.62109125
1316.0 -37.2314435
1318.0 -36.6210935
1320.0 -36.6210935
1322.0 -36.0107435
1324.0 -36.0107435
1326.0 -34.79004125
1328.0 -34.179689
1330.0 -34.179689
1332.0 -31.73829175
1334.0 -30.51758925
1336.0 -29.296887
1338.0 -29.296887
1340.0 -28.686537
1342.0 -28.686537
1344.0 -28.07618475
1346.0 -28.07618475
1348.0 -29.29688725
1350.0 -29.90723725
1352.0 -29.90723725
1354.0 -29.90723725
1356.0 -29.90723725
1358.0 -29.296885
1360.0 -29.90723725
1362.0 -29.29688725
1364.0 -28.07618475
1366.0 -26.85548225
1368.0 -26.24513
1370.0 -26.24513
1372.0 -26.24513
1374.0 -26.24513
1376.0 -25.63477775
1378.0 -25.02442775
1380.0 -25.63477775
1382.0 -26.24512775
1384.0 -26.24512775
1386.0 -26.24512775
1388.0 -26.85548
1390.0 -26.24512775
1392.0 -26.24512775
1394.0 -25.63477775
1396.0 -25.0244255
1398.0 -25.0244255
1400.0 -24.41407325
1402.0 -24.41407325
1404.0 -24.41407325
1406.0 -25.0244255
1408.0 -24.41407275
1410.0 -24.41407275
1412.0 -25.634775
1414.0 -26.245125
1416.0 -26.85547725
1418.0 -26.85547725
1420.0 -26.85547725
1422.0 -26.85547725
1424.0 -26.85547725
1426.0 -26.24512725
1428.0 -25.02442475
1430.0 -24.41407475
1432.0 -24.41407475
1434.0 -24.41407475
1436.0 -23.8037225
1438.0 -23.8037225
1440.0 -23.19337025
1442.0 -23.80372025
1444.0 -24.41407025
1446.0 -24.41407025
1448.0 -24.41407025
1450.0 -24.41407025
1452.0 -24.41407025
1454.0 -25.0244225
1456.0 -25.63477475
1458.0 -25.63477475
1460.0 -25.02442475
1462.0 -24.41407475
1464.0 -23.8037225
1466.0 -24.4140725
1468.0 -24.4140725
1470.0 -24.4140725
1472.0 -24.4140725
1474.0 -25.0244225
1476.0 -27.46581975
1478.0 -27.46581975
1480.0 -28.076172
1482.0 -28.076172
1484.0 -28.076172
1486.0 -28.076172
1488.0 -28.68652475
1490.0 -28.68652475
1492.0 -28.07617475
1494.0 -27.46582475
1496.0 -27.46582475
1498.0 -27.46582475
1500.0 -27.46582475
1502.0 -26.8554725
1504.0 -28.07617475
1506.0 -28.68652475
1508.0 -30.51756975
1510.0 -30.51756975
1512.0 -31.127922
1514.0 -31.738272
1516.0 -32.34862425
1518.0 -32.9589765
1520.0 -33.56932875
1522.0 -33.56932875
1524.0 -32.95897875
1526.0 -32.95897875
1528.0 -33.569331
1530.0 -33.569331
1532.0 -33.569331
1534.0 -34.179681
1536.0 -34.179681
1538.0 -34.790031
1540.0 -36.621076
1542.0 -37.231426
1544.0 -37.84177825
1546.0 -37.84177825
1548.0 -37.84177825
1550.0 -39.0624805
1552.0 -38.45212825
1554.0 -39.06248075
1556.0 -37.23143575
1558.0 -37.84178575
1560.0 -37.84178575
1562.0 -38.45213575
1564.0 -38.45213575
1566.0 -39.06248575
1568.0 -39.672838
1570.0 -40.2831905
1572.0 -42.1142355
1574.0 -42.7245855
1576.0 -42.7245855
1578.0 -43.3349355
1580.0 -43.9452855
1582.0 -44.55563775
1584.0 -43.94528775
1586.0 -43.94528775
1588.0 -42.11424275
1590.0 -42.11424275
1592.0 -42.11424275
1594.0 -42.11424275
1596.0 -42.11424275
1598.0 -42.11424275
1600.0 -42.11424275
1602.0 -42.72459525
1604.0 -44.55564025
1606.0 -45.16599025
1608.0 -45.16599025
1610.0 -46.38669275
1612.0 -46.38669275
1614.0 -45.77634275
1616.0 -45.77634275
1618.0 -46.38669525
1620.0 -44.55565025
1622.0 -44.55565025
1624.0 -44.55565025
1626.0 -44.55565025
1628.0 -44.55565025
1630.0 -43.94530025
1632.0 -44.5556525
1634.0 -43.9453
1636.0 -45.776345
1638.0 -46.3866975
1640.0 -46.3866975
1642.0 -46.3866975
1644.0 -46.3866975
1646.0 -46.3866975
1648.0 -46.3866975
1650.0 -45.776345
1652.0 -43.9453
1654.0 -43.9453
1656.0 -43.33494775
1658.0 -43.33494775
1660.0 -42.72459775
1662.0 -42.1142455
1664.0 -41.50389325
1666.0 -42.11424575
1668.0 -43.94529075
1670.0 -44.55564075
1672.0 -44.55564075
1674.0 -45.16599325
1676.0 -45.16599325
1678.0 -45.16599325
1680.0 -45.16599325
1682.0 -44.55564075
1684.0 -42.72459575
1686.0 -42.11424575
1688.0 -42.11424575
1690.0 -41.50389325
1692.0 -41.50389325
1694.0 -41.50389325
1696.0 -40.893541
1698.0 -40.893541
1700.0 -43.334936
1702.0 -42.724586
1704.0 -42.724586
1706.0 -42.114236
1708.0 -42.114236
1710.0 -41.50388375
1712.0 -41.50388375
1714.0 -40.89353375
1716.0 -39.06248875
1718.0 -37.84178625
1720.0 -37.84178625
1722.0 -37.84178625
1724.0 -37.84178625
1726.0 -37.23143625
1728.0 -36.621084
1730.0 -37.2314365
1732.0 -38.452139
1734.0 -37.841789
1736.0 -38.45214125
1738.0 -38.45214125
1740.0 -39.06249125
1742.0 -39.6728435
1744.0 -39.06249075
1746.0 -37.84178825
1748.0 -36.01074325
1750.0 -35.40039325
1752.0 -34.790041
1754.0 -33.5693385
1756.0 -33.5693385
1758.0 -32.95898625
1760.0 -32.95898625
1762.0 -33.56933875
1764.0 -35.40038375
1766.0 -34.7900315
1768.0 -34.7900315
1770.0 -34.1796815
1772.0 -34.1796815
1774.0 -34.1796815
1776.0 -34.1796815
1778.0 -32.958979
1780.0 -30.517584
1782.0 -30.517584
1784.0 -29.90723175
1786.0 -30.51758175
1788.0 -30.51758175
1790.0 -31.127934
1792.0 -30.51758175
1794.0 -31.73828425
1796.0 -32.95898675
1798.0 -33.56933675
1800.0 -33.56933675
1802.0 -33.56933675
1804.0 -33.56933675
1806.0 -33.56933675
1808.0 -33.56933675
1810.0 -32.95898425
1812.0 -31.73828175
1814.0 -31.73828175
1816.0 -31.73828175
1818.0 -31.12793175
1820.0 -30.51758175
1822.0 -30.51758175
1824.0 -31.1279345
1826.0 -32.348637
1828.0 -33.5693395
1830.0 -32.95898725
1832.0 -33.5693395
1834.0 -34.1796895
1836.0 -34.1796895
1838.0 -34.79004175
1840.0 -34.1796895
1842.0 -33.569337
1844.0 -32.348642
1846.0 -32.95899425
1848.0 -32.95899425
1850.0 -32.95899425
1852.0 -32.348642
1854.0 -32.958992
1856.0 -32.958992
1858.0 -34.1796945
1860.0 -35.400397
1862.0 -36.010747
1864.0 -36.62109925
1866.0 -36.01074925
1868.0 -36.01074925
1870.0 -35.400397
1872.0 -35.400397
1874.0 -34.1796945
1876.0 -32.958992
1878.0 -32.348642
1880.0 -32.348642
1882.0 -31.738292
1884.0 -31.738292
1886.0 -31.738292
1888.0 -31.738292
1890.0 -31.738292
1892.0 -33.569337
1894.0 -34.179687
1896.0 -34.179687
1898.0 -34.179687
1900.0 -34.790037
1902.0 -34.790037
1904.0 -34.790037
1906.0 -33.5693345
1908.0 -32.348632
1910.0 -32.95898425
1912.0 -32.348632
1914.0 -32.348632
1916.0 -32.958982
1918.0 -32.958982
1920.0 -33.56933425
1922.0 -34.17968675
1924.0 -34.17968675
1926.0 -34.17968675
1928.0 -34.17968675
1930.0 -34.79003675
1932.0 -36.010739
1934.0 -35.400389
1936.0 -36.01074125
1938.0 -34.79003875
1940.0 -33.56933625
1942.0 -33.56933625
1944.0 -33.56933625
1946.0 -34.17968625
1948.0 -34.17968625
1950.0 -34.7900385
1952.0 -34.7900385
1954.0 -36.6210835
1956.0 -37.2314335
1958.0 -37.2314335
1960.0 -37.2314335
1962.0 -37.2314335
1964.0 -37.2314335
1966.0 -37.2314335
1968.0 -37.84178575
1970.0 -37.84178575
1972.0 -35.4003885
1974.0 -34.7900385
1976.0 -34.7900385
1978.0 -35.4003885
1980.0 -34.17968625
1982.0 -34.17968625
1984.0 -34.7900385
1986.0 -36.6210835
1988.0 -37.2314335
1990.0 -37.2314335
1992.0 -37.84178575
1994.0 -37.84178575
1996.0 -37.23143575
1998.0 -37.23143575
2000.0 -37.23143575
2002.0 -36.62108325
2004.0 -36.62108325
2006.0 -37.23143325
2008.0 -37.23143325
2010.0 -36.62108325
2012.0 -36.01073325
2014.0 -36.01073325
2016.0 -36.01073325
2018.0 -37.84177825
2020.0 -39.67282325
2022.0 -39.67282325
2024.0 -39.67282325
2026.0 -40.28317575
2028.0 -40.89352575
2030.0 -40.89352575
2032.0 -41.503878
2034.0 -39.672833
2036.0 -39.062483
2038.0 -39.672833
2040.0 -39.672833
2042.0 -40.283183
2044.0 -40.283183
2046.0 -40.283183
2048.0 -39.67283075
2050.0 -41.50387575
2052.0 -43.3349305
2054.0 -43.9452805
2056.0 -43.9452805
2058.0 -43.3349305
2060.0 -44.55563275
2062.0 -45.77633525
2064.0 -45.77633525
2066.0 -44.55564025
2068.0 -44.55564025
2070.0 -45.16599025
2072.0 -45.16599025
2074.0 -45.16599025
2076.0 -45.16599025
2078.0 -45.16599025
2080.0 -45.16599025
2082.0 -46.38668525
2084.0 -47.60738025
2086.0 -47.60738025
2088.0 -47.60738025
2090.0 -48.21773025
2092.0 -48.21773025
2094.0 -48.21773025
2096.0 -48.21773025
2098.0 -46.99703525
2100.0 -45.77634025
2102.0 -45.77634025
2104.0 -45.165988
2106.0 -44.5556355
2108.0 -45.165988
2110.0 -46.3866905
2112.0 -46.9970405
2114.0 -49.4384355
2116.0 -50.659138
